Comment


Housekeeping
temperature low range;temperature high range;voltage;current
16-11-22;11:10:44
22.8;;23.1;;61.19;;12.58
23.4;;23.9;;60.80;;8.59
22.9;;23.3;;60.70;;8.35
22.9;;23.2;;61.19;;9.20

Diode settings
address;bias current (hex);modulation current (dec);modulation current (hex);enabled/distabled

channel;pedestal / ADC counts;gain / ADC counts;mean number of pixels
000;533.96;062.14;154.815
001;613.44;054.44;155.098
002;536.79;061.20;169.337
003;614.37;057.61;169.293
004;542.34;058.55;167.481
005;611.14;057.58;170.416
006;535.80;055.09;167.826
007;601.59;054.14;167.889
008;532.81;059.72;175.635
009;596.40;057.96;180.118
010;524.70;060.34;182.465
011;611.02;059.38;183.113
012;534.02;059.95;180.986
013;612.17;056.17;177.541
014;535.92;057.39;173.234
015;615.19;058.94;177.287
016;543.28;056.77;171.473
017;607.65;056.34;175.518
018;544.06;059.93;177.190
019;613.83;053.37;166.747
020;536.45;060.00;181.629
021;610.56;054.47;171.161
022;537.25;061.02;187.308
023;604.51;057.42;183.754
024;541.46;062.25;189.041
025;595.74;057.41;187.025
026;527.30;056.85;177.296
027;602.39;058.18;189.138
028;536.62;061.33;194.962
029;595.36;061.24;194.504
030;536.23;059.03;190.922
031;600.59;057.80;190.124
032;539.55;057.92;190.127
033;607.37;060.37;202.595
034;539.38;059.19;190.999
035;599.72;059.01;196.600
036;534.88;058.91;188.469
037;601.30;057.85;186.261
038;545.99;063.64;187.132
039;605.15;057.63;188.462
040;539.16;060.20;192.314
041;599.76;059.09;187.632
042;533.79;061.32;190.326
043;605.15;056.51;183.023
044;546.77;061.03;196.246
045;599.16;059.03;191.993
046;535.31;059.94;188.094
047;608.96;059.02;191.721
048;541.52;063.54;196.808
049;601.26;058.83;197.063
050;535.64;059.96;196.638
051;605.50;055.25;183.547
052;547.15;056.90;178.645
053;602.56;057.17;188.604
054;547.88;059.76;200.531
055;612.49;060.72;209.679
056;536.89;059.88;201.766
057;613.83;059.54;196.880
058;535.38;059.04;194.043
059;606.24;057.77;194.724
060;550.45;061.02;195.510
061;595.88;062.16;194.255
062;542.87;061.41;194.848
063;595.28;057.59;180.089
064;639.50;061.49;184.968
065;562.96;059.00;177.239
066;639.58;060.20;186.525
067;552.91;060.70;196.264
068;636.12;061.83;204.258
069;556.23;062.61;189.274
070;633.65;059.50;192.920
071;556.03;061.79;192.860
072;641.04;059.10;188.761
073;553.55;060.14;188.321
074;630.82;062.00;197.436
075;568.59;062.22;203.067
076;639.32;060.99;201.590
077;557.40;062.49;198.758
078;632.55;059.92;196.110
079;555.79;063.15;201.423
080;634.40;062.53;206.302
081;566.55;063.00;200.820
082;628.64;059.68;195.338
083;564.45;063.46;201.507
084;635.94;064.44;208.072
085;561.28;061.05;195.224
086;629.67;058.67;193.134
087;565.50;059.81;191.878
088;649.91;060.05;191.314
089;560.57;063.40;200.864
090;626.50;061.35;190.913
091;553.36;061.44;195.392
092;637.70;061.90;195.159
093;570.31;061.35;196.261
094;632.36;063.23;207.581
095;569.81;060.89;200.082
096;640.41;059.83;187.363
097;558.51;062.27;192.190
098;633.64;056.72;181.935
099;564.98;062.08;185.118
100;641.05;058.88;181.239
101;558.28;062.24;187.826
102;630.14;061.97;186.754
103;564.23;060.93;187.096
104;637.21;061.47;184.038
105;558.23;062.20;181.823
106;634.43;061.29;181.182
107;561.10;060.31;179.705
108;650.93;061.20;177.750
109;551.87;062.47;185.227
110;630.38;061.89;180.157
111;549.46;062.48;181.746
112;640.18;061.68;178.113
113;555.10;064.42;186.010
114;644.58;059.09;180.994
115;555.31;060.24;181.755
116;631.26;062.30;187.653
117;562.29;059.75;175.603
118;630.03;060.75;179.784
119;558.22;061.18;182.003
120;638.24;061.68;183.824
121;555.93;063.01;180.151
122;638.74;061.49;180.583
123;549.36;060.68;175.931
124;633.42;058.66;180.989
125;556.20;063.91;186.688
126;631.56;062.78;190.393
127;562.87;063.24;186.159
128;568.54;058.50;177.724
129;553.46;060.13;181.738
130;580.41;057.85;181.943
131;551.71;060.00;178.622
132;577.77;057.03;182.830
133;550.20;059.04;179.373
134;566.58;055.64;175.296
135;551.16;056.86;173.112
136;576.04;056.84;184.212
137;539.73;057.22;179.573
138;575.45;058.33;182.333
139;550.49;062.24;188.393
140;586.02;057.44;181.773
141;554.16;058.86;180.748
142;574.64;056.74;184.866
143;538.26;059.85;184.978
144;580.01;058.37;186.629
145;555.11;056.68;182.262
146;578.59;057.69;185.548
147;547.81;056.87;181.326
148;580.75;058.74;189.206
149;550.21;059.65;188.299
150;577.31;060.02;192.720
151;546.60;055.87;183.601
152;576.64;057.21;187.952
153;554.08;057.65;186.613
154;578.67;054.80;184.450
155;551.63;058.78;188.004
156;572.73;056.87;189.748
157;549.45;060.73;194.299
158;575.59;057.95;196.240
159;547.01;057.90;191.701
160;591.93;056.57;201.820
161;552.57;060.52;197.838
162;570.39;055.45;191.165
163;552.82;061.58;204.044
164;575.73;056.89;201.955
165;543.03;058.08;197.153
166;578.43;054.43;193.849
167;546.25;059.77;200.935
168;578.27;056.97;197.635
169;546.00;061.17;205.776
170;586.41;055.00;195.594
171;536.97;059.12;201.634
172;581.56;055.72;202.162
173;547.24;057.62;201.315
174;575.07;055.09;199.461
175;550.32;057.99;204.892
176;572.38;056.88;203.794
177;548.77;059.08;208.855
178;577.27;057.04;215.036
179;547.78;058.97;204.910
180;579.25;054.53;197.901
181;548.43;059.95;215.535
182;579.91;056.82;215.876
183;546.57;059.80;213.853
184;591.66;055.63;212.062
185;551.87;054.28;205.350
186;581.27;057.30;217.685
187;543.80;057.90;225.222
188;583.23;058.05;230.368
189;546.65;059.89;224.724
190;578.41;058.09;216.509
191;545.29;059.38;209.470
192;519.68;061.84;216.811
193;612.53;060.35;221.093
194;525.64;062.36;221.683
195;638.20;060.52;226.600
196;525.05;060.73;227.941
197;611.10;056.65;224.815
198;521.82;060.68;227.733
199;598.00;059.07;226.646
200;525.38;059.29;229.679
201;599.42;058.75;224.095
202;525.00;058.52;227.555
203;609.84;059.22;236.803
204;529.84;061.19;241.274
205;610.13;059.59;244.050
206;527.92;058.79;245.458
207;607.45;059.13;249.453
208;530.71;061.24;246.037
209;603.27;061.10;245.905
210;527.75;059.90;248.497
211;600.72;060.04;252.292
212;525.92;061.34;257.385
213;597.35;057.89;249.242
214;525.53;060.80;254.655
215;603.50;059.00;257.836
216;524.73;060.89;254.929
217;612.29;059.52;263.231
218;520.44;059.07;259.213
219;603.61;058.91;257.661
220;520.03;060.03;256.463
221;611.31;059.57;255.413
222;524.83;061.65;260.426
223;596.67;058.11;262.716
224;515.34;060.86;264.520
225;595.82;058.81;266.186
226;522.21;060.22;261.657
227;599.13;060.41;258.553
228;521.52;059.29;261.100
229;602.82;058.73;266.139
230;529.75;062.16;266.672
231;599.11;059.03;256.986
232;514.36;061.50;259.540
233;603.64;060.92;258.002
234;521.36;059.96;258.073
235;615.94;059.04;264.936
236;528.58;062.13;273.659
237;592.64;057.26;263.105
238;523.39;061.32;265.752
239;600.61;059.38;263.159
240;520.07;059.56;263.862
241;602.05;057.80;261.327
242;529.21;062.22;268.988
243;596.96;059.78;271.305
244;531.20;062.60;274.024
245;608.12;060.73;281.803
246;520.52;062.23;283.749
247;601.75;060.21;285.177
248;519.28;059.71;277.607
249;589.21;057.80;284.038
250;527.85;061.23;292.932
251;603.83;058.18;290.327
252;534.09;061.75;295.501
253;609.96;060.23;294.807
254;521.64;062.26;307.646
255;593.29;061.16;300.146
256;561.58;060.08;386.652
257;623.42;062.23;389.821
258;568.68;060.53;382.106
259;614.53;062.34;393.473
260;564.77;060.81;399.486
261;611.35;061.24;391.028
262;563.54;062.47;406.102
263;616.08;062.17;395.052
264;560.24;059.08;391.612
265;612.76;061.53;405.722
266;555.82;062.85;407.215
267;620.87;061.30;404.567
268;558.29;061.14;407.640
269;615.99;062.66;416.798
270;561.68;061.04;413.168
271;617.94;060.09;398.663
272;559.67;056.47;387.131
273;618.82;060.85;408.150
274;557.41;060.22;405.799
275;624.83;061.59;412.946
276;561.14;060.26;406.318
277;625.17;062.96;414.968
278;554.06;059.90;408.181
279;617.62;060.72;413.442
280;564.01;062.75;420.945
281;620.00;061.48;412.346
282;564.13;059.82;413.280
283;623.14;061.06;408.987
284;555.98;061.85;425.576
285;618.10;064.40;435.992
286;554.68;062.37;427.158
287;610.68;062.56;420.914
288;559.08;063.52;422.543
289;612.08;062.03;424.837
290;557.57;062.38;432.822
291;619.73;062.47;426.829
292;561.97;062.27;428.574
293;625.42;063.43;435.184
294;568.59;060.63;422.159
295;624.85;063.39;443.902
296;562.08;063.46;451.213
297;618.42;063.33;452.165
298;565.09;062.23;447.991
299;622.38;063.20;453.458
300;558.33;061.42;443.132
301;622.63;063.12;451.265
302;555.87;061.45;439.753
303;609.72;063.01;449.800
304;565.24;062.31;440.455
305;617.27;061.07;434.796
306;560.14;062.42;442.225
307;626.41;060.98;435.506
308;560.42;061.95;446.582
309;620.96;061.29;447.855
310;563.03;062.30;452.793
311;618.44;063.00;450.002
312;569.64;058.10;429.262
313;615.17;060.77;443.051
314;566.59;060.36;439.860
315;619.24;062.36;449.016
316;559.12;061.35;449.692
317;610.15;063.01;444.066
318;555.55;061.35;444.705
319;627.22;060.14;427.927
320;589.78;060.78;424.060
321;572.63;060.71;415.031
322;589.61;062.18;434.109
323;565.67;062.64;433.598
324;589.76;062.72;431.673
325;564.30;062.64;434.927
326;591.38;060.10;445.283
327;563.99;062.00;440.844
328;598.37;060.79;444.897
329;565.56;060.04;433.829
330;594.75;060.51;442.682
331;563.34;062.44;447.515
332;589.06;059.94;451.170
333;565.29;062.05;452.568
334;597.04;060.43;449.174
335;559.94;062.92;456.020
336;591.16;060.97;452.244
337;557.94;062.47;459.596
338;592.26;061.06;456.545
339;560.88;062.53;465.194
340;589.76;062.86;478.769
341;562.20;062.53;465.939
342;595.96;060.61;452.239
343;563.90;062.04;460.953
344;587.57;064.09;475.740
345;568.25;061.59;469.771
346;581.16;062.52;482.215
347;563.11;062.69;477.757
348;592.23;061.15;473.923
349;562.95;062.34;472.824
350;592.70;061.60;481.639
351;561.84;063.50;476.704
352;599.73;062.06;479.544
353;565.95;061.14;477.951
354;595.31;059.49;471.197
355;557.97;062.81;476.795
356;598.00;063.50;476.237
357;553.20;064.31;488.880
358;588.47;061.81;489.441
359;560.36;062.43;491.353
360;590.89;062.14;491.249
361;565.10;061.00;473.572
362;593.24;062.10;487.858
363;553.98;063.16;514.043
364;593.40;063.97;512.873
365;562.37;061.13;491.582
366;596.36;063.08;504.919
367;559.31;060.84;491.357
368;598.79;061.87;492.985
369;567.11;062.69;502.125
370;603.31;061.49;503.501
371;557.07;062.51;508.535
372;600.65;061.14;491.028
373;556.45;061.23;501.995
374;599.87;060.75;494.582
375;556.31;063.68;517.195
376;588.88;063.69;519.112
377;551.91;061.91;504.779
378;588.87;063.33;485.118
379;557.42;061.51;491.368
380;591.77;062.16;503.683
381;553.08;063.09;494.766
382;597.55;062.14;477.933
383;565.10;062.39;490.720
384;566.92;060.21;402.648
385;618.97;063.37;409.873
386;568.12;063.66;412.999
387;621.07;065.18;410.084
388;559.48;061.03;405.733
389;626.36;065.44;417.605
390;558.97;063.40;420.628
391;616.50;062.28;409.951
392;572.83;062.19;421.736
393;627.18;063.41;410.997
394;571.77;060.45;408.316
395;623.83;063.35;428.240
396;557.37;061.50;429.233
397;619.00;064.33;435.678
398;554.26;063.02;437.074
399;614.94;063.73;425.521
400;563.75;061.06;427.440
401;623.06;064.66;430.848
402;554.32;060.26;413.774
403;628.53;063.41;422.728
404;572.33;062.48;420.500
405;619.97;061.69;417.473
406;567.09;061.95;432.939
407;624.59;062.20;419.854
408;560.38;062.58;434.360
409;619.20;062.18;426.623
410;555.02;060.27;422.313
411;618.71;062.39;431.207
412;563.57;062.39;432.648
413;621.41;061.26;422.563
414;563.32;061.59;436.451
415;627.77;061.28;428.730
416;552.62;062.05;430.013
417;623.86;062.16;432.646
418;563.58;061.03;430.397
419;624.94;060.97;423.924
420;559.06;064.43;436.576
421;622.69;063.74;452.184
422;563.01;061.83;440.578
423;626.91;063.42;438.370
424;558.97;061.74;446.789
425;611.94;063.36;443.952
426;559.45;062.99;440.995
427;620.42;062.42;440.959
428;555.24;060.87;434.867
429;620.78;062.22;440.029
430;563.88;062.78;436.007
431;631.33;064.41;440.796
432;565.52;059.01;426.605
433;614.50;061.47;429.299
434;564.30;060.06;422.079
435;624.17;062.20;433.312
436;564.34;059.60;425.581
437;613.60;061.31;429.239
438;564.28;062.17;429.472
439;626.30;062.01;422.041
440;566.67;060.46;416.334
441;630.35;061.52;420.279
442;565.06;059.92;415.684
443;628.16;059.96;418.700
444;561.99;059.83;404.537
445;614.27;062.24;415.861
446;575.57;059.53;413.467
447;623.80;061.78;407.394
448;578.04;059.99;384.052
449;550.12;061.39;384.998
450;575.00;060.73;378.914
451;571.23;059.03;362.161
452;583.26;060.27;385.609
453;542.66;060.87;385.059
454;583.38;057.82;384.214
455;529.83;062.24;388.491
456;584.03;061.17;393.270
457;534.91;061.06;379.980
458;576.97;060.08;388.810
459;541.88;062.10;383.431
460;587.21;059.46;372.372
461;535.54;062.33;376.598
462;579.35;058.29;366.403
463;540.36;062.43;381.961
464;580.49;061.15;386.406
465;534.15;062.45;381.852
466;580.75;061.68;391.130
467;539.65;063.71;388.212
468;582.07;061.76;386.721
469;545.25;063.60;390.815
470;592.94;061.31;394.087
471;550.77;062.47;397.688
472;577.13;027.52;-992.247
473;550.78;063.06;396.993
474;583.19;060.19;383.191
475;546.18;062.37;389.130
476;576.50;059.65;378.355
477;536.21;061.09;380.642
478;580.16;060.05;378.784
479;550.73;061.33;372.611
480;572.93;061.43;383.092
481;534.14;061.88;383.385
482;583.60;061.91;383.883
483;537.75;060.96;377.513
484;590.75;061.28;386.520
485;532.05;060.23;377.377
486;582.87;060.03;383.250
487;535.42;062.45;381.764
488;581.95;060.67;386.453
489;536.73;062.22;385.486
490;570.98;061.30;391.316
491;529.00;062.10;386.155
492;583.65;059.90;372.195
493;529.68;061.01;381.799
494;583.61;056.70;363.302
495;539.98;060.29;372.551
496;575.57;060.50;372.947
497;534.90;062.19;385.041
498;580.96;060.05;382.701
499;532.20;062.05;375.905
500;584.17;059.65;370.299
501;537.62;060.18;369.797
502;585.81;058.76;375.260
503;531.03;061.14;386.075
504;574.87;059.84;372.804
505;539.45;061.09;371.909
506;589.31;061.11;374.591
507;534.20;060.67;385.758
508;575.29;061.19;378.270
509;530.57;061.70;359.292
510;583.13;059.91;341.913
511;528.33;059.56;272.589
