Comment


Housekeeping
temperature low range;temperature high range;voltage;current
16-11-22;12:12:18
23.2;;23.4;;61.17;;12.71
23.7;;24.2;;60.80;;8.35
23.2;;23.6;;60.70;;8.11
23.2;;23.5;;61.19;;9.07

Diode settings
address;bias current (hex);modulation current (dec);modulation current (hex);enabled/distabled

channel;pedestal / ADC counts;gain / ADC counts;mean number of pixels
000;536.98;061.04;76.865
001;616.12;053.89;74.336
002;539.53;060.83;80.676
003;616.65;056.41;81.419
004;544.76;057.61;79.327
005;613.50;056.95;82.147
006;538.45;055.39;78.996
007;604.49;053.28;79.677
008;535.56;059.55;83.417
009;598.51;057.57;86.061
010;527.85;058.68;87.524
011;613.02;059.30;86.918
012;536.77;058.00;88.056
013;614.85;056.06;83.163
014;538.29;056.76;83.306
015;618.16;058.03;84.055
016;545.67;056.22;81.645
017;610.61;056.35;82.485
018;547.40;059.25;83.692
019;616.50;053.75;77.961
020;539.11;059.75;84.758
021;613.03;053.99;81.560
022;540.17;060.12;88.836
023;606.99;057.87;86.224
024;544.43;061.00;91.013
025;598.72;057.98;86.868
026;530.08;057.10;83.197
027;605.04;057.87;89.021
028;539.33;060.45;92.768
029;597.73;059.71;92.989
030;538.59;059.10;91.126
031;603.14;056.85;90.682
032;542.21;057.94;88.111
033;609.89;059.98;96.435
034;542.45;058.78;89.884
035;602.57;058.80;92.450
036;537.45;058.18;89.631
037;604.18;056.95;89.322
038;548.73;061.41;92.559
039;607.70;057.42;89.291
040;541.57;059.84;91.645
041;602.18;058.26;92.521
042;536.17;060.03;93.566
043;608.03;056.33;88.347
044;549.34;061.10;94.562
045;601.68;058.03;93.719
046;537.39;058.95;92.651
047;610.86;059.12;93.462
048;544.15;063.30;96.619
049;603.19;059.40;96.721
050;537.90;059.48;96.866
051;608.89;054.43;89.457
052;549.69;055.81;88.843
053;604.98;056.30;95.386
054;549.85;059.33;101.324
055;614.92;060.04;107.408
056;538.85;059.98;101.824
057;615.95;058.69;101.897
058;537.93;058.10;99.346
059;608.37;057.45;100.450
060;552.70;060.23;101.085
061;598.38;060.83;101.748
062;544.74;061.15;99.938
063;598.02;056.37;93.838
064;642.67;061.31;95.884
065;564.45;058.47;94.107
066;642.43;060.00;98.039
067;554.67;061.12;101.506
068;638.69;062.22;106.013
069;558.00;062.11;100.652
070;636.40;060.66;98.641
071;557.49;061.62;101.094
072;643.65;057.95;99.174
073;555.02;059.29;100.041
074;633.88;060.85;103.923
075;570.09;062.28;105.678
076;641.40;061.39;104.531
077;559.31;061.50;103.955
078;634.92;059.44;103.643
079;557.79;062.75;104.823
080;637.08;063.11;107.697
081;568.42;062.42;107.124
082;631.22;060.01;101.257
083;566.46;063.51;105.310
084;638.03;064.72;109.231
085;563.78;061.13;101.344
086;632.63;058.63;101.235
087;567.87;059.02;101.157
088;652.24;059.95;99.072
089;563.23;063.05;104.275
090;629.48;060.23;101.557
091;555.65;061.21;101.030
092;640.63;061.03;103.907
093;572.41;061.18;104.296
094;634.96;063.00;109.173
095;571.44;060.34;105.811
096;643.40;058.36;101.134
097;560.91;062.18;101.726
098;636.63;056.48;95.267
099;567.31;061.56;98.400
100;644.00;058.87;96.300
101;560.54;061.89;99.678
102;633.17;061.89;99.336
103;566.73;060.80;100.633
104;639.81;060.81;100.226
105;560.84;061.92;97.037
106;637.68;060.11;97.260
107;563.70;059.73;97.415
108;653.62;060.78;96.314
109;554.54;061.96;99.301
110;632.97;061.10;98.420
111;551.73;062.06;98.332
112;643.15;061.10;97.784
113;557.56;063.52;102.833
114;647.43;059.21;97.665
115;557.71;060.36;100.486
116;633.53;062.22;103.045
117;564.60;059.90;96.840
118;632.70;060.42;99.046
119;560.43;061.03;101.875
120;640.66;060.92;102.948
121;558.52;061.98;101.477
122;641.16;061.48;100.535
123;552.38;060.17;97.740
124;635.91;057.62;102.141
125;558.68;063.36;105.107
126;634.17;062.29;107.179
127;565.53;063.19;104.061
128;570.06;057.63;102.847
129;554.56;059.73;104.702
130;581.99;056.70;106.445
131;553.42;059.03;102.749
132;579.96;057.00;103.434
133;551.90;058.44;103.493
134;567.98;055.30;102.402
135;552.52;056.98;98.711
136;577.67;057.25;105.916
137;541.43;057.89;100.716
138;576.86;057.87;106.340
139;551.72;062.27;108.993
140;587.44;056.82;107.664
141;555.41;058.82;105.915
142;576.21;056.27;108.342
143;540.28;059.19;108.390
144;582.07;057.93;111.129
145;556.81;056.60;105.212
146;580.52;057.00;111.136
147;549.67;057.20;106.198
148;582.50;057.73;114.686
149;551.92;058.74;113.318
150;579.66;058.22;116.863
151;548.66;055.91;108.128
152;578.49;056.70;113.321
153;556.00;057.81;110.927
154;580.23;054.58;111.427
155;552.91;058.41;114.174
156;574.64;056.13;116.054
157;551.37;059.94;119.344
158;577.48;056.87;120.864
159;548.84;057.24;117.889
160;594.13;056.72;122.617
161;553.98;060.33;121.239
162;571.76;055.23;118.270
163;554.51;060.93;127.174
164;577.16;055.81;126.959
165;544.79;057.21;123.617
166;579.62;054.23;120.796
167;547.95;058.98;125.825
168;580.06;057.04;123.624
169;547.82;061.56;126.569
170;588.20;054.08;124.687
171;539.33;058.30;126.822
172;583.29;055.21;128.643
173;549.70;057.60;125.239
174;576.65;054.58;127.657
175;552.24;057.57;129.233
176;573.70;056.23;130.424
177;550.62;057.97;134.148
178;578.71;056.73;138.344
179;549.66;058.06;133.730
180;580.48;054.81;127.169
181;550.34;059.08;140.510
182;581.72;055.94;140.894
183;548.44;058.60;139.658
184;592.60;055.85;137.196
185;553.23;054.28;132.771
186;582.71;055.83;144.994
187;545.54;058.10;144.877
188;584.27;058.41;147.459
189;548.62;059.20;148.163
190;579.63;057.55;141.798
191;547.47;058.72;135.881
192;522.18;060.45;144.966
193;614.36;059.89;146.696
194;527.24;061.19;148.177
195;640.38;059.53;154.460
196;526.48;061.10;151.610
197;613.58;056.25;150.804
198;523.50;059.65;152.798
199;599.61;058.60;152.621
200;527.18;059.74;153.662
201;601.31;057.27;154.157
202;527.62;058.24;152.097
203;611.23;059.73;158.473
204;531.60;061.41;162.365
205;612.28;058.99;166.892
206;529.53;058.94;165.402
207;609.88;058.33;169.785
208;532.56;060.55;168.822
209;605.18;060.16;170.649
210;529.53;059.75;167.300
211;603.08;059.60;173.625
212;527.40;060.37;178.768
213;599.58;057.95;169.070
214;527.24;060.16;176.158
215;605.36;058.69;176.463
216;525.30;059.88;178.621
217;614.15;059.19;182.924
218;522.64;058.76;177.039
219;605.83;059.12;176.120
220;521.88;059.23;179.452
221;613.76;059.07;178.245
222;526.41;060.77;184.089
223;598.68;057.80;181.107
224;516.73;060.92;183.957
225;598.30;058.64;185.988
226;523.86;059.90;182.834
227;600.64;059.12;184.567
228;523.96;058.81;182.248
229;604.83;058.86;186.825
230;531.19;062.06;184.597
231;601.08;058.10;182.720
232;515.95;060.32;184.200
233;606.23;060.17;181.038
234;523.92;059.01;181.823
235;617.86;058.52;187.844
236;530.42;062.58;189.131
237;595.35;057.54;184.945
238;525.07;061.16;186.742
239;602.12;058.77;187.839
240;520.73;059.79;185.287
241;603.57;058.01;185.071
242;532.03;060.90;191.664
243;598.73;060.34;191.612
244;533.14;061.22;197.607
245;609.76;060.56;201.745
246;522.42;061.06;205.563
247;603.38;060.81;202.550
248;520.72;059.14;198.981
249;591.15;056.97;207.884
250;528.89;060.61;212.550
251;605.38;057.95;210.049
252;535.08;061.39;213.767
253;611.95;060.23;213.461
254;522.37;062.47;221.060
255;595.31;060.89;220.216
256;563.51;059.91;284.040
257;624.16;061.94;286.558
258;569.66;060.11;284.984
259;615.33;062.24;291.650
260;565.73;060.83;295.588
261;612.37;061.01;287.596
262;565.24;062.09;302.629
263;617.64;061.52;293.309
264;562.67;058.46;291.807
265;615.03;061.39;300.297
266;557.70;062.70;302.858
267;620.89;061.23;302.046
268;560.34;060.66;306.057
269;618.01;062.48;309.673
270;562.54;061.01;308.962
271;619.09;060.26;296.060
272;561.88;056.87;286.957
273;618.79;060.45;307.720
274;558.88;059.60;307.719
275;627.34;061.03;309.105
276;562.62;059.84;305.538
277;626.10;062.26;312.011
278;557.02;058.98;309.725
279;617.38;061.15;310.200
280;565.91;062.21;319.637
281;621.47;061.21;312.349
282;564.25;059.71;314.893
283;625.49;060.22;310.395
284;557.33;061.42;321.561
285;620.19;063.79;330.608
286;556.94;062.17;321.538
287;610.81;062.10;320.944
288;560.06;062.90;322.703
289;614.79;061.50;322.927
290;558.28;062.50;328.511
291;620.73;062.36;326.575
292;563.03;062.14;324.782
293;627.92;062.51;332.013
294;570.00;060.33;321.001
295;625.11;063.72;336.053
296;562.79;063.28;344.026
297;621.06;062.54;346.414
298;568.59;061.20;343.114
299;625.28;062.51;346.480
300;559.77;060.83;342.391
301;623.72;062.55;345.288
302;557.85;060.33;341.045
303;611.39;062.58;345.176
304;567.48;062.27;334.183
305;619.82;060.71;332.547
306;560.41;062.35;340.069
307;628.35;061.03;334.138
308;561.68;061.22;343.185
309;622.75;060.84;344.123
310;564.31;061.60;348.643
311;619.46;062.83;346.407
312;570.58;057.73;333.095
313;616.95;059.96;343.987
314;569.03;060.13;337.370
315;620.04;062.11;347.460
316;561.95;061.17;344.527
317;612.49;062.45;343.238
318;555.56;060.93;346.137
319;628.71;059.88;329.909
320;589.02;060.44;332.597
321;573.59;059.49;326.186
322;589.48;062.27;340.739
323;566.29;063.35;333.058
324;591.53;061.78;339.852
325;565.46;062.25;340.272
326;594.42;060.40;344.398
327;564.68;061.26;347.930
328;597.09;060.84;352.741
329;567.37;059.86;339.821
330;594.56;060.37;351.715
331;562.95;061.77;356.108
332;589.90;059.80;357.245
333;562.92;061.48;363.215
334;598.00;060.25;354.161
335;559.58;062.24;366.625
336;593.29;060.60;359.105
337;559.57;061.89;366.278
338;593.79;060.57;365.049
339;559.48;063.41;367.788
340;592.95;062.33;379.108
341;562.96;061.71;373.461
342;596.69;060.43;361.658
343;566.70;061.89;365.906
344;591.12;063.33;380.751
345;568.90;061.03;379.289
346;584.74;061.84;384.720
347;565.12;062.17;381.815
348;593.48;061.04;379.510
349;563.73;062.12;381.503
350;597.34;061.09;382.483
351;561.85;062.69;388.328
352;603.18;062.13;379.865
353;568.78;060.93;380.935
354;594.50;059.55;381.583
355;557.34;062.37;387.934
356;596.97;063.27;389.286
357;556.44;063.94;395.793
358;593.34;061.16;396.149
359;562.11;061.69;403.183
360;591.50;061.25;404.352
361;566.00;060.49;387.433
362;592.27;062.04;400.795
363;555.84;062.97;420.271
364;595.61;063.46;424.004
365;565.98;060.06;407.992
366;598.01;063.14;414.467
367;560.92;060.94;400.543
368;599.02;061.65;406.220
369;570.01;062.75;409.884
370;603.69;061.24;415.621
371;559.97;061.89;420.788
372;600.02;061.10;410.703
373;558.18;060.99;416.270
374;599.65;059.99;416.779
375;555.23;063.32;436.010
376;591.06;063.19;434.077
377;554.55;061.54;419.430
378;589.33;061.95;414.037
379;556.97;061.27;418.454
380;594.22;062.16;418.793
381;555.68;062.54;418.001
382;600.09;061.32;408.453
383;567.83;061.92;415.426
384;563.02;060.12;346.731
385;618.91;062.42;352.842
386;567.30;062.56;357.712
387;620.88;064.55;351.705
388;559.34;061.28;343.227
389;624.95;065.81;359.260
390;559.14;062.97;360.837
391;615.14;062.10;353.916
392;573.23;061.75;363.476
393;626.24;063.23;357.288
394;570.18;060.21;358.834
395;622.19;063.14;374.371
396;559.15;060.83;373.764
397;617.56;063.93;382.836
398;553.73;062.68;382.014
399;613.76;064.12;372.497
400;564.18;060.37;376.448
401;621.44;063.65;384.297
402;553.86;059.93;367.209
403;628.68;063.36;372.551
404;572.49;062.37;373.217
405;620.14;061.37;372.856
406;564.81;061.51;390.706
407;624.72;061.31;378.196
408;558.37;063.39;389.914
409;619.56;062.27;381.293
410;552.44;060.45;382.748
411;618.61;062.20;390.145
412;562.45;062.24;393.259
413;618.79;061.20;390.229
414;563.62;061.58;396.837
415;627.37;061.15;391.803
416;553.92;061.83;393.057
417;622.13;062.14;399.320
418;561.80;060.37;403.622
419;624.20;060.22;394.571
420;558.86;063.48;410.472
421;623.64;063.56;414.343
422;561.45;061.49;411.852
423;625.42;062.79;414.517
424;558.16;062.09;413.560
425;608.15;063.63;415.834
426;558.17;062.36;414.760
427;618.19;062.02;416.415
428;552.55;060.79;410.271
429;618.88;062.21;417.116
430;565.67;062.07;414.588
431;629.16;063.74;424.032
432;565.99;059.53;399.900
433;614.22;060.94;409.100
434;565.91;058.93;404.900
435;621.48;062.51;415.782
436;565.57;058.93;407.781
437;611.87;061.96;408.832
438;565.94;061.46;412.389
439;626.29;061.45;409.950
440;567.26;060.22;400.567
441;629.05;061.28;409.831
442;565.16;059.97;399.192
443;627.47;060.91;397.771
444;560.26;059.78;392.450
445;614.26;062.22;405.237
446;575.80;059.84;401.832
447;622.19;061.89;401.102
448;575.18;060.05;381.379
449;546.43;061.29;385.434
450;570.63;060.74;385.727
451;567.97;058.45;370.018
452;578.99;060.32;393.713
453;539.13;061.12;393.444
454;580.56;057.64;395.540
455;528.08;061.95;403.517
456;581.32;062.02;406.143
457;531.71;060.95;402.742
458;575.03;059.84;410.101
459;537.94;062.13;406.140
460;586.25;058.57;399.067
461;533.08;061.97;400.230
462;575.33;057.88;397.678
463;538.67;062.15;410.516
464;576.02;060.97;420.800
465;533.52;061.95;414.649
466;578.67;061.47;425.837
467;536.99;063.46;425.493
468;578.64;061.58;427.309
469;543.88;063.49;426.100
470;589.51;061.25;432.288
471;548.81;063.11;434.154
472;573.32;026.94;01.010
473;550.92;062.14;439.684
474;579.57;060.15;423.668
475;545.17;062.46;423.544
476;572.95;059.64;418.445
477;533.32;060.87;426.386
478;578.83;059.82;421.321
479;548.95;061.26;409.736
480;569.36;061.50;430.159
481;530.91;061.80;431.140
482;580.77;061.34;433.313
483;534.08;061.26;422.606
484;586.08;060.99;440.230
485;526.73;060.39;428.852
486;579.72;060.08;432.039
487;532.72;062.33;431.398
488;578.09;060.56;440.818
489;532.22;061.76;442.264
490;572.08;060.82;441.112
491;527.24;062.34;436.933
492;638.62;059.16;329.821
493;525.45;061.20;436.106
494;579.04;056.38;418.678
495;537.15;060.25;425.660
496;572.56;059.50;434.468
497;532.45;062.27;437.774
498;578.24;060.54;433.952
499;528.80;062.00;427.450
500;579.17;059.87;424.249
501;534.69;060.27;420.076
502;582.84;058.57;428.132
503;526.19;061.35;441.102
504;569.56;059.89;428.359
505;537.15;060.59;422.226
506;584.01;061.19;431.881
507;530.24;061.42;432.891
508;572.51;060.59;430.879
509;527.98;061.55;404.959
510;580.36;059.99;389.067
511;524.58;059.97;312.663
