Comment


Housekeeping
temperature low range;temperature high range;voltage;current
16-12-08;10:31:24
21.8;;22.1;;61.17;;13.07
22.4;;22.9;;60.80;;8.59
21.8;;22.3;;60.70;;8.11
21.8;;22.2;;61.17;;9.32

Diode settings
address;bias current (hex);modulation current (dec);modulation current (hex);enabled/distabled

channel;pedestal / ADC counts;gain / ADC counts;mean number of pixels
000;529.03;062.82;238.854
001;611.94;055.84;204.267
002;532.73;062.38;223.350
003;612.41;057.94;223.105
004;538.04;059.82;220.011
005;607.58;058.81;227.684
006;531.45;056.15;218.990
007;598.71;055.65;221.675
008;528.85;061.24;234.339
009;593.62;060.91;233.450
010;520.79;061.81;241.242
011;607.87;060.48;247.516
012;530.41;061.83;235.577
013;608.98;058.32;229.679
014;531.59;058.53;229.680
015;613.50;059.54;238.283
016;538.73;057.76;230.162
017;604.84;058.44;234.011
018;540.15;061.04;246.172
019;610.69;054.35;226.263
020;531.95;061.16;239.894
021;607.43;055.87;229.504
022;533.15;062.61;245.711
023;600.93;058.91;247.795
024;538.08;063.30;254.355
025;592.75;059.16;258.192
026;522.77;058.48;249.772
027;599.86;059.80;256.388
028;533.40;062.28;272.722
029;592.60;062.72;275.134
030;531.03;061.91;276.271
031;598.61;059.89;279.468
032;535.70;060.04;278.039
033;605.26;062.28;293.217
034;537.09;059.97;279.010
035;596.98;061.19;286.036
036;531.06;060.32;280.936
037;599.49;058.28;281.387
038;542.78;063.58;287.975
039;602.79;059.64;277.218
040;536.24;062.29;284.989
041;597.66;060.73;286.692
042;530.96;062.45;286.764
043;602.33;058.35;271.916
044;543.17;062.38;295.301
045;597.49;060.09;287.155
046;530.73;061.28;284.630
047;605.11;060.35;288.841
048;539.76;064.51;288.413
049;598.20;060.97;284.492
050;530.72;062.04;284.550
051;602.90;056.90;278.234
052;544.49;058.19;277.530
053;600.76;058.77;285.247
054;544.38;062.06;299.622
055;610.65;062.44;315.005
056;531.67;062.10;302.527
057;610.81;061.31;294.762
058;531.95;061.31;285.540
059;603.77;060.02;280.165
060;548.27;062.74;282.722
061;594.37;063.14;282.160
062;539.71;063.68;272.778
063;593.71;058.94;253.087
064;634.37;061.89;264.654
065;559.42;060.07;259.399
066;634.18;062.49;267.892
067;550.91;062.94;268.775
068;630.63;064.79;287.461
069;553.37;064.34;289.683
070;628.63;061.98;286.212
071;553.17;062.78;287.170
072;635.75;060.89;284.214
073;550.10;061.69;285.692
074;626.74;063.30;299.739
075;564.76;063.82;303.040
076;634.91;063.05;298.575
077;554.62;064.06;293.351
078;628.33;061.76;292.869
079;552.35;065.65;298.163
080;627.60;065.21;310.115
081;562.91;064.70;301.293
082;623.87;061.04;293.914
083;559.97;064.71;306.771
084;631.76;067.21;310.424
085;559.32;062.37;297.390
086;623.88;060.29;293.393
087;563.68;061.80;287.572
088;643.62;061.79;291.078
089;556.92;065.14;303.530
090;621.73;062.49;294.265
091;549.30;063.43;294.693
092;632.85;063.26;296.931
093;566.31;063.31;292.082
094;626.74;065.26;300.118
095;567.01;062.13;288.880
096;635.79;061.02;283.296
097;554.15;063.05;293.011
098;629.97;058.93;271.929
099;560.87;063.99;283.229
100;636.27;060.54;278.050
101;553.62;063.94;287.344
102;626.23;063.35;286.191
103;558.89;063.52;284.882
104;632.14;063.01;284.609
105;553.75;064.08;277.960
106;629.34;062.94;271.887
107;556.68;062.46;263.523
108;646.36;062.66;262.518
109;546.50;064.38;269.771
110;625.77;063.40;267.562
111;545.89;063.30;264.670
112;636.50;062.45;264.195
113;550.12;065.37;274.096
114;639.44;061.17;263.965
115;549.48;062.06;268.039
116;627.19;064.21;271.497
117;556.40;061.53;260.630
118;626.55;061.57;266.125
119;553.25;063.30;269.333
120;634.89;063.14;265.765
121;550.70;064.30;271.357
122;635.00;063.63;264.413
123;545.75;061.34;261.012
124;629.57;059.67;267.216
125;551.05;065.44;274.754
126;627.61;064.34;277.678
127;559.14;065.37;270.538
128;563.61;059.35;257.595
129;550.95;061.58;258.883
130;576.63;058.50;263.680
131;549.80;060.90;259.211
132;573.18;057.92;269.173
133;545.92;060.56;262.981
134;562.30;056.78;256.469
135;547.39;058.76;248.259
136;570.34;059.01;263.140
137;536.76;059.60;252.424
138;571.43;059.40;270.325
139;545.15;063.54;278.721
140;582.09;058.88;263.878
141;549.12;060.26;262.476
142;569.86;058.38;265.412
143;533.21;061.28;274.487
144;575.85;059.04;277.899
145;549.74;058.31;263.744
146;574.64;059.52;271.745
147;543.40;058.44;265.911
148;576.42;060.04;279.171
149;546.35;061.60;276.984
150;573.33;061.08;287.393
151;541.27;058.00;271.688
152;573.02;058.51;281.717
153;549.30;058.78;284.620
154;573.02;056.07;286.143
155;547.91;060.50;290.844
156;569.13;058.54;291.253
157;544.71;062.42;295.487
158;572.00;058.92;302.538
159;543.15;059.15;296.508
160;588.10;058.11;315.970
161;549.60;062.25;313.982
162;566.67;056.04;310.320
163;550.45;063.80;318.433
164;571.88;058.70;311.763
165;538.60;058.93;312.619
166;574.48;055.95;303.964
167;541.00;062.33;319.275
168;573.44;059.49;318.649
169;541.94;063.11;326.902
170;583.78;056.50;310.700
171;532.04;060.44;324.567
172;577.73;057.15;322.810
173;544.50;058.92;320.259
174;571.76;055.77;325.144
175;547.54;058.75;322.654
176;570.36;058.53;326.149
177;545.39;059.79;331.797
178;575.41;058.79;335.139
179;544.43;060.02;328.944
180;578.64;055.84;320.834
181;544.52;060.92;343.171
182;578.39;057.80;343.152
183;541.73;060.26;346.001
184;587.66;057.36;341.798
185;547.56;056.74;317.668
186;578.26;057.97;341.509
187;540.05;061.21;329.056
188;581.10;059.91;338.719
189;542.71;060.62;329.402
190;576.93;059.54;325.041
191;541.53;059.93;321.921
192;512.72;063.61;324.426
193;606.32;062.10;331.771
194;517.32;063.39;338.832
195;632.14;062.28;348.422
196;519.11;062.53;346.016
197;606.40;057.70;343.360
198;514.45;062.09;356.128
199;591.06;060.95;360.139
200;518.86;061.11;366.778
201;593.10;059.57;363.056
202;514.49;060.83;376.211
203;603.51;061.12;386.170
204;521.89;063.37;391.774
205;605.35;061.26;392.986
206;521.59;060.91;386.987
207;604.26;060.83;389.640
208;525.31;062.91;392.800
209;660.54;062.28;298.239
210;520.19;061.15;399.064
211;595.43;061.89;398.728
212;516.64;063.59;401.165
213;589.64;059.94;399.452
214;519.14;062.31;404.757
215;598.50;060.30;406.424
216;517.81;062.31;400.418
217;605.78;061.07;403.017
218;513.09;060.33;400.665
219;597.95;060.16;397.024
220;514.29;061.50;400.706
221;603.69;060.38;400.251
222;516.38;063.66;398.166
223;588.59;059.71;397.682
224;507.88;062.27;401.927
225;588.62;060.04;408.010
226;513.20;062.31;401.033
227;591.81;061.23;398.178
228;513.59;060.95;402.564
229;596.35;060.23;413.131
230;524.21;063.63;408.776
231;593.29;060.36;403.523
232;508.24;062.34;412.582
233;595.77;061.54;418.389
234;516.00;060.90;405.355
235;610.21;060.83;413.968
236;518.06;064.27;430.810
237;587.22;058.69;411.319
238;517.70;062.74;420.562
239;593.99;060.75;423.979
240;514.28;062.30;416.036
241;654.67;058.91;321.044
242;522.69;062.39;432.447
243;651.78;060.04;339.015
244;530.76;063.43;430.080
245;599.86;062.21;446.506
246;513.75;064.39;440.466
247;656.51;061.17;354.035
248;518.81;060.63;428.798
249;641.83;058.91;341.687
250;521.07;063.05;446.948
251;597.62;058.03;457.517
252;522.26;063.50;466.440
253;604.08;062.42;454.267
254;579.16;064.59;374.970
255;586.56;062.85;463.688
256;559.72;062.68;518.890
257;682.70;063.61;441.591
258;620.78;060.95;441.961
259;675.86;063.43;447.284
260;678.26;063.37;354.878
261;665.78;062.51;451.577
262;616.23;064.51;469.341
263;611.34;063.36;553.943
264;546.65;060.05;564.868
265;670.09;062.46;465.857
266;610.66;063.72;474.658
267;675.70;062.41;462.799
268;614.35;062.21;463.894
269;676.64;063.96;475.627
270;540.26;062.24;589.883
271;671.67;061.62;460.789
272;609.77;057.47;447.573
273;624.36;063.54;541.364
274;546.99;062.43;563.855
275;685.54;061.85;471.122
276;609.82;061.51;475.602
277;683.56;063.71;484.186
278;606.93;060.99;473.179
279;670.92;062.67;474.497
280;617.47;063.42;490.173
281;680.06;062.18;478.997
282;552.79;062.37;571.500
283;678.23;062.31;476.095
284;611.06;063.12;493.139
285;742.55;064.99;412.595
286;610.08;063.32;498.307
287;664.34;063.49;506.465
288;611.51;064.86;520.805
289;670.03;063.14;546.388
290;609.93;063.57;560.493
291;744.43;063.35;453.215
292;621.78;063.99;550.639
293;688.80;063.72;569.619
294;557.85;062.03;654.227
295;681.72;065.54;578.854
296;617.66;064.78;587.721
297;678.64;063.66;591.098
298;622.00;063.15;578.069
299;685.67;064.08;579.203
300;610.99;063.08;574.980
301;681.84;064.15;594.514
302;609.41;062.75;577.484
303;733.88;064.62;484.672
304;616.51;064.57;580.844
305;679.19;062.03;569.606
306;610.47;063.27;608.835
307;624.90;062.15;672.943
308;614.96;063.59;581.759
309;680.85;062.29;559.421
310;681.39;062.45;472.348
311;678.84;064.01;545.250
312;622.79;059.38;498.085
313;612.81;062.00;612.195
314;614.47;061.51;520.206
315;743.80;063.59;423.115
316;541.11;063.39;641.347
317;671.56;063.58;521.911
318;611.91;062.14;515.564
319;682.61;061.18;505.975
320;636.71;062.34;503.281
321;629.57;060.92;501.514
322;553.57;064.10;650.755
323;623.67;063.73;517.162
324;583.96;063.31;613.510
325;570.12;064.95;596.955
326;645.42;062.33;508.910
327;623.57;062.33;518.164
328;644.95;061.31;552.186
329;562.46;061.62;632.472
330;679.07;062.60;515.841
331;620.49;063.35;583.481
332;700.72;061.15;490.999
333;620.69;063.28;605.504
334;581.20;061.60;697.671
335;612.04;064.00;609.017
336;707.46;062.39;482.321
337;616.82;063.25;595.465
338;703.43;062.26;493.550
339;620.30;064.70;591.202
340;707.12;063.48;514.698
341;683.40;062.21;503.147
342;646.52;061.19;598.408
343;746.46;062.90;410.581
344;774.42;063.94;427.915
345;617.66;063.26;616.006
346;697.77;063.99;515.971
347;625.08;063.84;605.416
348;640.36;062.58;623.084
349;563.35;063.83;706.189
350;647.14;062.88;607.761
351;617.95;065.05;603.683
352;712.82;063.16;499.456
353;617.64;062.29;580.483
354;639.64;061.20;570.145
355;612.84;063.49;575.019
356;715.11;064.27;489.417
357;611.87;065.31;591.655
358;649.54;063.04;585.243
359;611.79;063.91;589.818
360;580.65;063.32;695.154
361;1107.23;064.72;-807.794
362;708.80;062.26;512.544
363;669.20;064.64;519.575
364;646.11;064.65;639.370
365;612.72;062.37;605.085
366;649.23;064.11;620.226
367;674.12;062.76;499.848
368;648.19;063.04;613.443
369;623.89;063.83;613.130
370;718.73;062.31;521.018
371;672.98;063.17;539.710
372;714.83;061.78;539.608
373;606.90;062.00;623.012
374;636.82;061.14;644.822
375;674.49;064.27;550.417
376;657.21;064.74;628.706
377;604.30;062.45;650.739
378;646.19;064.18;634.157
379;669.26;062.82;545.205
380;644.01;063.41;646.133
381;221.45;064.30;1250.930
382;651.45;062.60;643.301
383;613.05;063.73;640.453
384;618.15;060.85;567.416
385;736.67;063.86;486.498
386;685.85;063.32;504.508
387;673.56;066.15;601.404
388;612.94;062.83;575.615
389;676.96;067.28;613.381
390;612.04;065.05;610.097
391;662.07;063.52;599.812
392;627.43;063.51;598.760
393;743.90;064.49;504.987
394;617.33;062.17;602.489
395;669.18;064.64;625.978
396;673.38;061.97;514.048
397;671.11;066.21;609.857
398;544.85;065.66;711.277
399;668.08;065.35;624.778
400;612.29;062.46;616.986
401;688.13;065.86;602.657
402;590.75;061.21;625.325
403;743.96;064.57;515.100
404;685.95;063.25;511.250
405;674.04;062.96;597.247
406;683.32;063.41;516.393
407;739.91;062.74;512.715
408;613.81;064.40;636.725
409;729.76;063.47;535.661
410;1154.60;104.19;-847.807
411;668.29;063.42;651.297
412;683.54;063.66;560.140
413;605.19;063.06;732.821
414;673.89;062.84;560.274
415;802.68;061.76;453.190
416;605.14;063.35;660.258
417;738.83;062.85;560.716
418;-79.28;062.05;1772.319
419;737.77;061.28;555.450
420;616.07;064.85;670.212
421;679.95;065.86;661.792
422;616.75;062.47;680.740
423;734.07;063.89;572.736
424;1158.54;072.08;-822.396
425;727.33;064.66;553.117
426;612.94;063.44;673.967
427;671.32;063.34;660.629
428;1406.60;041.74;-48.923
429;736.92;063.22;551.112
430;1809.87;-01.00;00.000
431;746.64;065.12;572.347
432;622.61;060.75;638.542
433;725.97;062.02;557.169
434;622.26;060.98;632.722
435;671.78;062.93;665.872
436;619.11;060.66;643.166
437;726.69;062.33;558.583
438;687.51;062.28;560.112
439;679.96;062.25;652.518
440;678.57;061.14;551.010
441;676.05;062.88;655.067
442;623.88;061.31;648.329
443;741.76;061.39;558.036
444;630.63;061.10;617.773
445;662.21;063.20;669.016
446;634.30;060.90;644.039
447;680.39;062.55;636.208
448;562.07;061.74;719.094
449;657.37;063.06;539.768
450;632.32;061.72;623.068
451;612.96;060.10;607.896
452;693.16;061.54;530.155
453;656.67;061.93;532.925
454;690.69;058.93;524.804
455;586.24;063.09;648.138
456;695.09;062.59;558.059
457;646.05;062.41;531.088
458;628.57;060.89;643.640
459;657.35;063.60;549.308
460;635.67;060.26;640.762
461;645.67;063.41;571.070
462;624.63;059.63;638.045
463;655.80;063.25;558.744
464;687.80;062.66;567.513
465;583.10;063.13;671.832
466;621.37;063.73;689.389
467;594.05;064.28;688.229
468;690.41;063.50;587.715
469;656.19;064.75;577.829
470;700.28;063.38;574.610
471;518.00;064.26;779.223
472;613.86;059.86;668.131
473;584.38;064.01;679.602
474;693.02;061.26;584.711
475;646.54;064.52;576.841
476;618.64;060.94;679.598
477;642.68;062.43;585.704
478;1416.45;036.79;01.454
479;718.53;062.39;506.114
480;614.38;063.30;720.286
481;642.61;062.57;608.201
482;696.69;062.62;606.668
483;639.16;062.55;593.818
484;699.61;061.26;612.117
485;634.24;061.62;590.670
486;690.17;060.61;603.841
487;647.93;062.88;611.398
488;689.78;061.15;616.232
489;644.67;062.48;610.725
490;682.85;062.39;620.299
491;641.67;063.27;604.824
492;631.89;061.04;682.219
493;512.73;062.26;812.962
494;683.49;057.93;580.059
495;705.49;061.85;487.390
496;618.96;061.41;699.546
497;558.97;062.97;758.953
498;627.73;061.74;718.843
499;640.93;062.47;631.306
500;629.13;060.82;715.915
501;582.76;062.39;695.206
502;751.61;060.72;495.711
503;514.20;062.84;811.191
504;743.23;060.64;497.772
505;523.68;062.56;791.587
506;707.34;062.25;588.209
507;704.12;062.18;490.896
508;619.74;062.36;691.106
509;642.14;062.45;566.769
510;764.87;060.74;441.471
511;571.50;060.96;595.594
