Comment


Housekeeping
temperature low range;temperature high range;voltage;current
16-12-08;10:43:29
21.9;;22.2;;61.17;;12.34
22.5;;23.0;;60.78;;8.47
22.0;;22.4;;60.70;;8.11
22.0;;22.3;;61.19;;9.20

Diode settings
address;bias current (hex);modulation current (dec);modulation current (hex);enabled/distabled

channel;pedestal / ADC counts;gain / ADC counts;mean number of pixels
000;530.59;063.70;200.834
001;611.86;055.26;179.988
002;534.21;062.28;194.756
003;613.95;058.86;191.823
004;539.36;059.32;195.263
005;609.28;058.66;198.264
006;532.56;056.96;189.596
007;600.05;055.34;194.182
008;530.00;061.17;206.136
009;594.36;059.56;209.301
010;522.09;061.31;212.283
011;609.11;060.43;213.836
012;531.35;060.91;209.954
013;610.12;057.84;203.304
014;532.40;058.30;203.232
015;613.33;059.62;211.132
016;539.38;057.13;203.764
017;605.28;057.19;210.220
018;541.10;061.22;213.153
019;612.53;054.14;195.842
020;533.35;061.05;210.066
021;608.78;055.57;200.259
022;534.82;061.80;220.256
023;602.64;058.40;218.846
024;538.85;062.97;225.393
025;594.23;059.05;224.944
026;524.55;057.45;220.270
027;600.76;058.93;227.247
028;535.06;062.55;237.321
029;593.53;061.37;246.942
030;533.43;061.45;240.647
031;598.48;059.55;248.547
032;537.26;059.70;247.695
033;606.26;062.17;259.960
034;537.58;060.27;247.498
035;598.00;061.08;252.527
036;532.96;060.17;248.415
037;599.88;058.41;249.008
038;543.47;063.44;258.658
039;603.92;059.16;247.155
040;536.46;061.88;256.773
041;598.57;060.63;254.971
042;530.67;062.23;256.193
043;603.05;057.82;244.542
044;544.02;062.79;261.699
045;598.29;060.06;257.422
046;532.48;060.79;256.328
047;606.38;060.18;258.040
048;539.91;064.04;262.560
049;599.99;060.21;255.893
050;533.07;061.67;252.717
051;604.02;056.40;250.720
052;545.12;057.84;249.514
053;601.78;058.56;257.137
054;544.84;062.24;268.953
055;611.36;061.61;287.703
056;534.16;061.62;272.742
057;613.00;061.12;262.371
058;533.66;060.09;260.129
059;605.45;059.75;252.538
060;548.72;062.15;259.119
061;594.11;062.90;257.478
062;541.62;062.87;249.125
063;594.35;058.49;231.070
064;635.30;062.43;237.824
065;560.86;059.50;234.467
066;635.79;062.05;243.997
067;549.80;062.62;249.192
068;632.62;063.86;262.032
069;553.79;063.68;266.893
070;629.75;061.29;262.239
071;552.73;063.15;262.942
072;636.87;060.68;262.605
073;549.97;062.14;259.270
074;627.22;062.71;277.663
075;565.43;064.44;274.513
076;634.78;063.02;273.225
077;554.84;063.52;269.080
078;629.22;061.15;272.202
079;551.92;065.53;274.585
080;629.74;064.88;285.321
081;562.25;064.42;279.290
082;623.70;060.61;276.182
083;561.27;064.79;281.819
084;631.36;066.05;294.601
085;557.19;062.28;281.337
086;626.10;060.23;271.015
087;562.49;061.29;270.879
088;645.65;060.63;272.156
089;557.23;064.81;281.011
090;622.57;061.90;277.458
091;550.22;063.51;272.675
092;633.08;063.11;279.147
093;566.95;062.86;274.101
094;627.50;065.14;280.076
095;565.83;061.45;277.481
096;637.23;060.20;267.050
097;554.49;063.39;274.041
098;629.82;058.14;258.199
099;560.67;064.09;266.086
100;636.44;061.12;258.407
101;554.17;064.20;270.527
102;626.17;063.70;268.881
103;560.39;063.50;266.409
104;631.97;062.81;271.624
105;554.53;063.03;266.776
106;630.15;062.33;260.705
107;557.35;062.17;250.144
108;647.30;062.60;252.093
109;548.03;064.22;259.952
110;627.14;063.24;257.238
111;544.92;063.62;258.423
112;636.25;063.05;251.643
113;550.48;065.06;264.084
114;640.49;061.70;253.725
115;551.93;062.15;257.387
116;628.66;063.77;262.164
117;558.32;060.64;252.810
118;626.81;061.62;258.900
119;554.15;062.29;264.512
120;635.88;062.61;260.691
121;552.40;064.05;261.098
122;635.50;062.86;261.598
123;545.52;061.71;257.077
124;630.58;059.63;261.025
125;552.66;064.96;268.415
126;629.11;063.84;271.562
127;558.29;065.64;267.316
128;564.96;059.70;249.890
129;550.90;060.64;261.275
130;575.84;058.50;258.955
131;549.39;061.10;255.918
132;573.72;058.75;260.043
133;547.11;059.82;259.645
134;563.02;056.83;252.126
135;546.53;058.80;248.219
136;572.14;058.54;262.488
137;536.41;058.91;255.417
138;570.90;059.62;271.249
139;546.66;063.27;275.075
140;582.14;058.11;265.754
141;550.49;059.77;260.092
142;569.49;057.45;267.662
143;535.06;060.71;274.694
144;576.42;059.04;273.683
145;550.26;057.90;262.426
146;574.32;059.48;271.859
147;543.47;058.30;263.925
148;576.51;059.62;278.108
149;545.53;060.99;277.095
150;573.40;060.80;284.314
151;542.34;057.75;267.358
152;572.46;058.55;274.676
153;549.14;059.51;276.212
154;575.62;055.64;275.471
155;548.39;060.09;283.982
156;568.69;058.01;287.698
157;546.00;062.20;291.386
158;572.19;059.19;293.659
159;542.29;059.77;285.606
160;588.65;058.38;302.492
161;548.82;061.26;310.428
162;566.15;055.92;299.558
163;549.93;062.42;315.239
164;571.51;057.87;303.001
165;538.55;059.03;297.734
166;575.30;055.83;288.272
167;542.25;061.14;306.613
168;575.70;058.48;301.834
169;542.96;062.24;309.684
170;583.39;055.68;297.536
171;533.28;060.20;304.581
172;579.26;056.59;304.022
173;543.85;058.75;303.402
174;571.85;055.95;303.038
175;545.75;059.42;300.257
176;569.23;058.11;307.280
177;545.56;059.35;310.432
178;574.29;057.99;317.350
179;544.14;058.98;309.671
180;577.46;055.92;296.390
181;544.12;061.10;318.472
182;576.03;057.57;321.576
183;542.73;060.20;316.944
184;587.78;057.25;313.927
185;548.18;056.27;294.194
186;579.34;057.82;316.011
187;540.21;059.68;309.472
188;580.07;059.66;312.012
189;543.31;061.51;299.288
190;577.04;058.82;299.776
191;541.07;060.01;294.138
192;515.36;062.18;299.569
193;608.48;061.46;306.272
194;521.09;063.03;307.738
195;633.85;061.80;318.712
196;521.75;061.15;320.211
197;607.84;058.30;309.934
198;516.14;061.33;326.536
199;594.73;060.52;323.860
200;521.53;061.00;326.666
201;595.88;059.50;326.870
202;520.88;059.60;336.286
203;606.48;060.78;345.361
204;524.23;063.43;349.005
205;605.76;061.11;352.133
206;523.69;060.40;347.337
207;602.49;060.95;350.421
208;526.51;062.22;351.619
209;600.27;061.98;355.656
210;523.77;061.26;348.036
211;598.54;061.59;353.195
212;521.25;062.38;360.155
213;593.44;058.75;357.552
214;520.11;062.30;359.373
215;599.50;060.20;359.304
216;519.33;061.90;354.276
217;608.29;060.93;353.098
218;515.27;060.23;350.906
219;599.61;060.10;352.216
220;515.29;060.96;354.427
221;608.51;060.07;347.874
222;521.13;063.16;346.278
223;591.82;059.82;345.246
224;510.22;062.23;351.536
225;590.77;060.44;352.684
226;516.57;062.15;343.564
227;593.42;060.73;349.712
228;516.26;060.97;343.644
229;597.38;060.10;357.176
230;525.45;063.04;356.208
231;595.29;060.01;346.832
232;509.76;062.13;355.678
233;597.84;061.65;354.160
234;516.30;060.70;349.462
235;611.53;060.61;350.539
236;523.93;063.44;362.937
237;588.80;059.22;348.603
238;520.31;062.67;354.851
239;596.78;060.06;357.811
240;515.12;061.36;357.274
241;597.54;059.03;354.166
242;526.40;062.76;359.438
243;592.20;060.98;363.702
244;524.15;063.71;366.972
245;602.64;062.57;372.196
246;517.39;063.14;372.514
247;598.04;062.28;370.574
248;514.25;061.11;364.054
249;585.07;058.95;366.061
250;522.29;062.30;377.108
251;599.98;059.24;367.443
252;528.25;062.63;383.934
253;606.34;061.78;374.864
254;515.37;064.01;394.134
255;590.23;062.74;377.319
256;558.17;061.96;434.074
257;622.02;063.45;444.271
258;563.73;061.64;437.709
259;612.51;063.33;445.407
260;560.80;062.67;446.051
261;606.92;062.21;446.188
262;557.18;064.57;458.063
263;612.98;063.21;447.845
264;554.81;060.30;443.465
265;673.68;062.12;353.456
266;547.43;064.75;457.931
267;620.11;062.25;445.398
268;551.31;063.23;451.173
269;677.50;064.27;358.960
270;560.71;061.38;455.393
271;612.75;061.77;444.792
272;613.33;057.73;333.609
273;677.59;062.00;356.278
274;553.66;061.14;455.775
275;628.09;062.84;444.650
276;552.88;061.51;459.419
277;619.80;064.10;469.913
278;552.89;061.09;450.089
279;611.89;062.07;459.397
280;558.01;063.53;466.539
281;619.66;062.95;456.402
282;564.31;061.47;452.552
283;618.74;062.16;461.257
284;614.57;062.58;375.908
285;614.89;064.84;491.215
286;551.80;063.05;478.533
287;607.02;063.78;476.098
288;617.37;064.48;396.617
289;614.75;063.39;504.227
290;553.22;064.08;522.756
291;683.23;063.63;419.075
292;618.12;063.78;431.523
293;622.86;064.67;531.236
294;563.03;061.78;523.040
295;685.74;064.78;446.088
296;620.98;064.96;448.325
297;680.29;064.50;445.845
298;564.72;063.20;535.222
299;687.19;063.51;446.741
300;618.67;062.51;432.439
301;683.78;064.38;445.824
302;1128.97;090.31;-732.863
303;670.73;064.06;447.958
304;625.06;063.45;438.881
305;618.10;062.20;523.134
306;556.00;064.16;540.966
307;615.75;062.67;542.315
308;620.07;063.44;435.167
309;682.81;062.21;416.461
310;623.13;062.68;423.209
311;618.33;063.70;501.465
312;625.79;058.97;370.759
313;674.27;061.24;385.098
314;623.26;061.34;382.226
315;680.50;062.74;396.476
316;556.97;063.16;485.726
317;608.57;063.23;490.335
318;554.04;062.86;469.127
319;686.01;061.65;366.711
320;645.28;061.16;375.532
321;573.06;061.52;461.406
322;585.69;063.71;479.949
323;561.93;063.49;483.111
324;649.23;062.32;391.800
325;562.94;064.23;482.931
326;588.97;061.62;481.164
327;562.85;063.19;478.319
328;594.14;062.18;490.265
329;557.96;061.13;504.836
330;589.40;062.11;524.136
331;622.46;063.52;428.488
332;586.60;062.13;526.460
333;554.71;063.44;551.109
334;653.82;061.15;438.835
335;554.41;063.84;549.376
336;648.68;061.84;442.858
337;620.83;063.59;436.285
338;589.54;062.10;530.975
339;623.39;063.62;443.888
340;649.46;063.85;448.533
341;622.63;063.28;442.021
342;589.71;062.22;533.170
343;560.20;063.67;545.208
344;579.69;064.53;570.896
345;567.97;062.98;541.966
346;579.72;063.70;548.284
347;623.51;063.40;455.492
348;647.94;062.08;453.469
349;558.30;063.63;550.252
350;652.07;061.90;449.226
351;552.66;064.84;541.853
352;659.84;063.40;419.479
353;562.22;062.07;513.012
354;650.39;060.12;407.664
355;618.95;062.44;418.861
356;655.08;064.34;421.443
357;551.84;065.50;520.902
358;585.85;062.62;523.817
359;557.20;063.33;521.423
360;587.97;063.45;517.426
361;620.38;061.70;421.399
362;589.27;062.82;527.458
363;611.60;064.74;437.522
364;653.56;064.80;449.999
365;559.88;062.21;521.612
366;657.17;063.63;438.412
367;559.12;062.28;517.200
368;657.41;062.37;429.121
369;624.93;063.47;441.244
370;661.05;062.02;437.924
371;555.15;063.57;542.085
372;1003.79;111.66;-938.029
373;550.67;062.38;535.859
374;653.71;060.92;438.915
375;552.88;063.56;561.325
376;583.64;064.69;554.947
377;545.70;063.49;553.322
378;585.42;064.10;545.822
379;615.04;063.31;444.032
380;585.46;063.55;555.952
381;547.05;064.42;558.551
382;596.77;062.67;544.833
383;624.54;063.32;442.181
384;623.41;061.31;387.841
385;677.50;063.06;411.260
386;625.29;063.74;420.648
387;681.93;065.75;413.655
388;614.90;061.08;413.968
389;619.19;067.44;517.201
390;553.03;064.60;526.920
391;608.59;063.55;507.933
392;628.93;063.26;424.181
393;621.84;064.66;512.999
394;627.08;061.22;416.228
395;617.71;064.50;521.481
396;550.19;062.91;520.704
397;614.42;065.87;516.112
398;554.89;064.56;524.789
399;672.58;065.43;436.078
400;619.03;062.00;430.845
401;616.78;065.94;528.151
402;547.24;061.43;518.644
403;628.27;064.39;519.342
404;629.28;063.58;422.257
405;615.67;062.24;518.868
406;624.07;063.15;434.251
407;680.95;062.92;425.044
408;618.50;064.04;451.263
409;676.65;062.95;440.942
410;611.63;061.28;443.977
411;678.63;063.09;451.919
412;623.75;064.51;455.907
413;676.87;062.15;449.145
414;622.48;063.10;453.462
415;682.74;062.09;458.879
416;545.78;063.84;562.008
417;621.12;062.39;562.688
418;620.96;062.31;453.729
419;612.58;061.87;566.316
420;618.57;064.38;476.712
421;682.80;064.54;476.310
422;555.90;063.31;570.430
423;622.54;064.12;561.078
424;558.13;063.32;558.436
425;605.77;063.94;560.235
426;618.22;063.83;466.105
427;616.41;063.09;562.613
428;611.23;061.87;456.978
429;676.94;063.33;459.231
430;561.84;063.74;559.565
431;686.77;064.85;477.156
432;622.84;060.49;458.877
433;608.56;063.11;553.964
434;622.93;060.16;453.803
435;621.50;062.54;566.629
436;623.53;060.73;449.580
437;671.09;062.60;462.499
438;563.37;062.75;568.069
439;619.08;062.85;566.415
440;568.02;060.92;553.382
441;688.00;062.33;458.988
442;625.52;061.33;457.934
443;683.82;062.22;462.662
444;619.91;059.75;467.400
445;671.91;063.57;474.912
446;570.74;062.19;555.251
447;678.92;062.69;464.799
448;630.59;061.16;444.967
449;601.63;062.51;461.732
450;626.04;062.16;455.380
451;737.91;059.60;241.056
452;635.02;061.21;457.662
453;536.42;062.32;557.113
454;-536.54;058.95;2438.076
455;587.68;062.86;473.998
456;637.81;062.23;478.447
457;589.83;062.24;455.159
458;629.64;061.30;469.803
459;593.55;063.47;480.202
460;638.32;059.96;471.957
461;592.00;062.94;487.998
462;-152.68;059.39;1780.194
463;597.47;063.54;472.581
464;629.84;062.29;493.390
465;596.13;062.41;485.435
466;578.19;063.40;585.666
467;594.83;064.31;508.114
468;694.44;063.35;409.639
469;597.49;064.73;499.252
470;584.16;062.97;587.627
471;590.38;063.45;500.048
472;626.37;059.41;485.179
473;590.62;063.76;504.222
474;638.25;061.28;500.834
475;591.28;063.69;499.759
476;559.45;061.11;605.399
477;588.16;062.11;503.788
478;1174.66;063.56;-633.497
479;604.41;062.48;516.400
480;630.25;062.69;521.606
481;651.31;062.71;421.664
482;579.39;062.87;616.426
483;593.78;062.37;507.167
484;643.38;062.08;522.445
485;582.78;061.84;506.919
486;632.46;061.03;518.963
487;652.42;062.92;426.118
488;572.03;062.46;616.443
489;523.59;063.11;625.003
490;621.44;062.40;534.978
491;581.66;063.45;523.690
492;631.66;060.79;510.737
493;580.42;062.42;524.859
494;633.34;057.69;498.165
495;588.55;061.16;510.605
496;627.31;060.92;514.435
497;588.18;063.59;530.990
498;632.56;062.08;531.077
499;583.02;063.34;535.525
500;577.77;061.30;618.580
501;590.68;061.03;519.802
502;578.93;060.59;608.759
503;583.84;061.83;532.460
504;627.49;060.94;509.128
505;592.72;061.89;510.504
506;638.48;062.34;521.232
507;586.13;062.14;509.991
508;628.76;062.26;506.173
509;551.87;063.16;541.847
510;637.51;060.18;489.990
511;520.03;061.45;535.385
