Comment


Housekeeping
temperature low range;temperature high range;voltage;current
17-01-17;13:18:01
21.8;;22.1;;61.19;;12.22
22.4;;22.9;;60.80;;8.11
21.9;;22.4;;60.72;;7.74
21.9;;22.2;;61.19;;8.95

Diode settings
address;bias current (hex);modulation current (dec);modulation current (hex);enabled/distabled

channel;pedestal / ADC counts;gain / ADC counts;mean number of pixels
000;531.29;063.48;147.454
001;612.60;055.51;149.631
002;533.76;062.11;168.847
003;613.37;058.09;168.806
004;539.27;059.50;173.835
005;609.88;058.65;174.673
006;533.15;056.90;167.439
007;600.84;055.26;170.273
008;529.68;060.78;181.001
009;595.02;059.29;182.227
010;522.24;062.09;178.742
011;609.87;061.12;174.901
012;531.39;061.23;172.240
013;610.98;057.73;169.981
014;532.98;057.57;169.630
015;614.43;059.25;174.107
016;539.99;057.43;166.961
017;606.33;057.79;168.538
018;541.59;060.84;172.959
019;612.72;054.44;159.383
020;533.46;061.43;168.279
021;609.01;055.01;165.643
022;534.37;062.32;177.484
023;602.99;058.91;177.409
024;539.25;062.99;184.387
025;594.84;058.98;184.448
026;524.56;057.64;180.803
027;601.43;058.25;188.361
028;534.13;062.75;192.578
029;593.75;060.72;205.929
030;533.48;060.77;200.542
031;599.11;060.00;199.563
032;537.06;059.73;194.801
033;606.10;061.20;211.326
034;536.83;060.07;196.986
035;599.00;060.69;203.118
036;532.46;060.10;200.610
037;600.70;058.92;199.494
038;543.13;063.51;206.777
039;604.40;058.92;198.772
040;536.71;060.75;207.204
041;598.89;059.99;203.707
042;531.59;062.30;201.772
043;603.96;057.76;188.697
044;544.48;062.42;201.571
045;598.58;059.53;199.284
046;532.50;060.66;202.488
047;607.26;060.76;207.281
048;539.36;064.68;209.311
049;600.13;060.41;205.246
050;533.43;061.79;202.571
051;605.11;056.13;193.653
052;544.58;058.22;194.965
053;601.35;058.88;199.401
054;545.13;060.98;205.277
055;611.52;062.45;205.435
056;533.75;061.34;202.036
057;612.49;060.56;205.046
058;533.10;059.80;206.612
059;604.98;059.49;198.332
060;548.24;061.78;198.962
061;594.19;063.09;196.247
062;540.40;062.47;186.550
063;594.64;058.60;162.791
064;639.37;062.89;165.224
065;562.66;060.13;166.553
066;639.74;062.11;173.921
067;552.16;062.11;181.260
068;635.89;064.29;186.943
069;556.00;063.39;183.037
070;633.35;061.31;182.483
071;555.57;063.02;182.778
072;640.62;060.59;178.015
073;552.95;061.76;178.467
074;630.50;062.63;184.678
075;568.16;063.59;187.617
076;639.06;062.34;185.600
077;557.48;063.30;185.413
078;632.57;061.20;191.557
079;555.80;064.64;197.413
080;633.66;065.03;199.369
081;566.25;063.66;194.298
082;628.42;061.04;184.773
083;564.17;064.44;189.909
084;635.53;066.35;193.763
085;561.40;061.52;183.031
086;629.66;060.66;177.607
087;565.52;061.40;178.049
088;649.71;061.03;181.015
089;560.16;064.22;193.906
090;626.53;061.87;186.605
091;553.16;063.44;180.931
092;637.85;063.07;182.163
093;570.02;062.53;183.861
094;632.11;064.74;188.433
095;569.21;062.30;176.954
096;640.66;060.40;173.564
097;558.53;062.16;177.432
098;633.53;058.07;168.792
099;564.50;063.64;176.257
100;641.13;060.16;167.763
101;557.99;063.81;168.955
102;630.21;063.26;167.268
103;563.81;062.95;168.822
104;636.52;062.60;166.258
105;557.90;062.91;163.835
106;634.16;061.87;160.140
107;560.90;061.79;155.537
108;650.39;062.12;150.967
109;551.30;063.75;153.352
110;629.96;063.12;153.553
111;549.11;063.97;151.554
112;639.93;062.96;147.246
113;554.17;065.64;148.855
114;644.22;060.48;143.384
115;554.64;061.36;146.327
116;630.58;063.80;151.152
117;561.68;060.31;144.150
118;629.67;062.17;140.991
119;557.37;063.07;140.028
120;637.93;062.47;143.171
121;555.26;063.57;146.876
122;638.44;062.92;148.829
123;549.05;061.13;145.108
124;633.98;059.21;144.167
125;555.75;064.90;147.617
126;631.39;063.57;149.566
127;562.44;065.40;144.881
128;569.56;059.18;134.421
129;553.53;061.25;139.875
130;581.27;059.06;138.271
131;551.99;061.07;136.164
132;578.92;057.98;137.266
133;550.25;059.79;135.705
134;567.15;057.42;135.812
135;551.16;058.81;135.149
136;576.71;057.85;143.349
137;540.19;059.06;133.912
138;576.27;059.93;137.662
139;550.69;063.13;141.848
140;586.77;057.49;139.536
141;554.47;059.67;135.315
142;575.54;057.08;138.416
143;538.42;059.91;140.037
144;581.05;058.72;140.926
145;555.20;057.66;138.239
146;579.70;058.87;146.705
147;547.85;058.30;145.554
148;581.73;060.07;149.287
149;550.29;061.07;147.137
150;578.40;060.95;150.881
151;546.88;057.51;144.958
152;577.61;057.77;152.156
153;554.60;059.09;147.716
154;579.62;055.89;145.385
155;551.63;060.12;149.056
156;573.66;058.12;149.973
157;549.70;061.14;158.062
158;576.74;058.98;155.547
159;547.35;058.18;153.894
160;593.02;057.66;156.112
161;552.64;061.86;157.283
162;571.21;056.40;153.292
163;553.17;062.27;164.016
164;576.34;058.28;158.535
165;543.65;058.73;157.597
166;579.26;056.00;154.660
167;546.53;061.02;167.116
168;579.32;057.85;168.174
169;546.76;062.66;171.975
170;587.39;055.89;162.581
171;537.43;060.07;168.987
172;582.67;056.91;167.600
173;547.96;058.27;167.551
174;575.58;056.00;165.444
175;550.57;058.98;166.788
176;573.18;057.15;170.008
177;549.40;059.62;167.996
178;578.27;057.89;174.156
179;548.88;059.68;169.541
180;580.24;055.11;164.285
181;548.21;060.61;172.049
182;581.02;058.06;168.626
183;546.99;059.64;173.049
184;591.90;056.96;171.925
185;551.53;055.58;165.301
186;582.06;057.86;171.206
187;543.91;059.95;170.044
188;584.60;059.43;173.709
189;546.78;061.68;169.078
190;579.33;059.06;170.178
191;546.03;058.98;165.558
192;519.66;062.73;161.789
193;612.93;060.84;172.075
194;525.52;062.33;176.579
195;639.33;062.19;177.807
196;525.30;061.70;177.109
197;612.10;058.30;171.329
198;521.42;061.85;179.375
199;599.36;060.33;181.341
200;525.59;061.21;180.576
201;600.55;058.98;185.617
202;525.10;060.12;190.405
203;610.46;060.68;198.140
204;529.54;063.41;203.962
205;610.51;061.05;205.061
206;528.51;060.03;198.823
207;609.09;060.11;199.185
208;530.72;061.93;203.209
209;604.74;061.92;210.770
210;527.55;060.92;210.785
211;602.06;062.01;208.294
212;526.12;062.46;206.659
213;598.36;059.05;207.192
214;525.86;061.31;214.252
215;604.88;060.07;212.804
216;524.19;062.21;207.335
217;613.34;061.03;205.013
218;520.91;059.75;203.069
219;605.05;059.96;200.853
220;520.00;060.86;205.674
221;612.62;060.42;207.219
222;524.98;062.72;208.342
223;597.73;060.08;203.993
224;515.23;062.24;212.727
225;597.44;060.62;209.678
226;522.21;061.21;209.882
227;600.25;060.18;213.284
228;521.80;060.55;207.933
229;603.51;060.33;213.067
230;529.56;062.93;211.868
231;600.06;060.09;199.058
232;514.16;061.68;205.296
233;604.82;060.94;204.384
234;521.37;060.25;198.561
235;617.54;059.98;202.105
236;528.53;063.40;205.908
237;594.09;058.18;202.081
238;523.04;061.54;208.563
239;601.34;059.83;204.646
240;519.75;060.56;200.942
241;603.17;058.06;201.935
242;529.78;062.45;205.298
243;597.81;061.12;207.994
244;530.89;062.58;210.366
245;609.36;061.94;211.073
246;520.60;062.30;213.085
247;602.58;061.41;216.227
248;518.56;060.08;209.975
249;590.31;058.26;210.979
250;527.37;062.17;214.343
251;605.06;058.76;213.383
252;534.00;062.27;221.226
253;610.23;060.86;220.718
254;520.06;063.25;226.669
255;593.84;060.98;224.340
256;563.69;061.67;273.232
257;624.27;063.43;277.477
258;570.19;061.31;272.411
259;616.13;063.60;272.697
260;566.12;062.54;277.107
261;611.95;061.88;274.647
262;564.72;063.43;284.161
263;618.12;062.39;282.396
264;562.48;060.17;275.851
265;614.35;062.61;281.733
266;558.44;063.34;289.570
267;621.21;062.60;277.850
268;560.26;062.39;279.685
269;617.45;063.57;280.390
270;562.49;062.21;278.574
271;619.40;061.19;269.665
272;561.61;057.74;265.405
273;618.69;061.95;278.711
274;558.44;061.07;280.986
275;626.48;063.06;274.104
276;563.65;061.20;274.287
277;625.18;063.52;281.309
278;556.20;061.32;274.576
279;617.85;061.98;279.771
280;566.31;063.81;290.581
281;622.12;062.34;293.303
282;566.14;060.95;293.545
283;624.47;061.82;299.194
284;556.88;063.16;307.882
285;619.71;064.81;321.454
286;557.27;063.62;310.500
287;611.65;063.44;314.662
288;559.82;064.44;315.851
289;614.72;063.07;314.487
290;559.92;063.42;320.955
291;621.21;063.53;315.392
292;563.05;063.42;316.474
293;627.71;064.39;317.083
294;571.11;061.65;310.001
295;625.92;064.77;324.347
296;563.46;064.79;320.021
297;620.24;064.29;324.836
298;568.49;062.61;320.748
299;624.43;063.93;324.971
300;559.57;062.48;319.532
301;623.63;063.59;322.601
302;557.61;062.43;316.185
303;611.35;063.60;323.905
304;566.68;063.70;314.001
305;619.68;062.05;317.751
306;560.69;063.34;333.727
307;628.04;061.77;324.350
308;561.65;062.64;326.147
309;621.82;062.19;308.185
310;565.20;063.36;297.832
311;619.00;064.47;296.650
312;570.74;059.19;281.132
313;615.99;061.05;289.354
314;567.96;061.43;287.092
315;619.61;063.22;291.847
316;560.98;063.00;292.695
317;611.89;063.55;294.542
318;556.29;062.12;293.166
319;627.16;061.59;284.251
320;589.43;062.24;278.567
321;572.36;061.09;273.837
322;590.50;063.45;284.969
323;565.63;063.32;287.190
324;591.83;062.97;289.081
325;564.45;063.79;291.381
326;592.40;061.24;293.914
327;564.68;062.46;292.802
328;599.26;061.26;299.631
329;565.59;060.66;301.135
330;595.37;061.72;324.034
331;561.34;063.41;333.196
332;591.15;061.28;332.858
333;565.53;063.36;338.073
334;598.86;061.36;340.589
335;559.72;064.11;345.722
336;593.53;062.24;342.788
337;559.63;063.52;353.921
338;594.22;062.14;355.839
339;561.86;063.90;363.025
340;591.81;064.13;362.278
341;563.55;063.18;353.652
342;597.35;061.63;351.083
343;566.39;063.53;356.803
344;589.70;064.78;364.622
345;570.18;062.42;353.644
346;585.04;063.26;353.489
347;565.55;063.40;356.245
348;593.56;062.45;352.688
349;562.25;063.40;357.537
350;595.80;062.45;355.760
351;561.93;064.69;352.191
352;602.84;063.20;345.378
353;568.07;062.24;344.300
354;594.93;060.68;335.812
355;559.94;062.92;338.316
356;598.20;064.33;336.273
357;555.18;064.59;338.840
358;591.54;062.01;333.567
359;563.57;062.31;336.847
360;592.08;062.76;344.929
361;566.66;061.35;337.383
362;594.90;062.59;343.762
363;553.66;064.03;355.171
364;595.59;064.53;356.886
365;565.30;062.20;339.064
366;599.22;063.68;350.977
367;560.42;062.15;348.217
368;598.96;062.55;352.957
369;568.06;063.68;357.264
370;603.34;062.53;356.749
371;558.93;063.91;360.101
372;603.08;062.06;358.192
373;557.65;061.97;353.810
374;599.57;061.11;351.461
375;557.72;064.37;360.752
376;589.30;064.67;364.677
377;554.95;062.02;362.031
378;588.25;063.15;368.287
379;556.95;063.35;354.575
380;593.29;063.35;364.021
381;555.10;064.13;364.356
382;599.11;062.45;363.670
383;566.06;063.41;360.962
384;567.13;061.07;291.234
385;619.28;063.89;298.060
386;568.75;063.37;309.493
387;621.95;065.20;305.473
388;561.02;061.50;302.060
389;625.78;066.62;307.209
390;560.48;064.66;307.430
391;615.57;062.83;300.777
392;574.90;062.85;307.553
393;627.42;064.11;304.871
394;572.04;061.27;305.298
395;623.32;063.82;317.001
396;560.22;062.16;315.957
397;618.32;065.59;317.111
398;555.88;064.09;320.621
399;614.08;065.40;312.467
400;565.20;061.99;316.687
401;621.77;065.39;321.704
402;555.70;061.42;314.182
403;629.18;064.46;324.837
404;573.78;063.41;322.238
405;620.76;063.12;318.034
406;566.50;063.29;328.784
407;624.24;062.98;331.555
408;561.91;063.80;343.902
409;619.20;063.49;337.985
410;556.67;061.29;331.980
411;620.69;063.32;332.956
412;565.26;063.60;348.424
413;621.56;062.31;338.408
414;564.51;062.57;339.735
415;627.73;062.36;337.709
416;553.88;063.06;338.800
417;625.62;063.25;339.813
418;565.45;062.01;337.395
419;625.51;061.68;346.143
420;560.63;064.75;350.901
421;622.93;064.98;359.086
422;564.20;062.44;355.064
423;626.68;063.94;349.714
424;560.21;063.40;354.156
425;610.95;064.49;349.463
426;560.24;063.71;336.271
427;621.83;063.45;349.041
428;555.91;061.70;341.345
429;620.31;062.50;359.704
430;565.49;063.33;358.150
431;631.68;064.70;349.368
432;566.50;060.33;337.423
433;614.30;062.22;342.124
434;564.78;060.42;332.715
435;623.34;063.21;342.345
436;565.46;060.89;330.508
437;613.43;062.94;333.263
438;566.32;062.61;333.700
439;625.61;062.59;335.798
440;567.62;061.15;326.446
441;629.92;062.36;326.947
442;566.55;061.34;320.975
443;628.40;062.15;323.232
444;563.44;060.30;324.505
445;614.83;063.34;334.527
446;576.68;060.95;329.605
447;624.69;063.35;327.065
448;575.43;061.21;318.356
449;548.14;062.37;322.159
450;572.34;062.19;318.086
451;569.05;059.82;309.354
452;581.47;061.08;319.846
453;542.14;062.26;320.902
454;581.47;059.18;314.361
455;528.70;063.23;327.895
456;582.53;062.59;341.696
457;533.94;062.45;327.557
458;575.05;061.23;334.233
459;540.08;063.67;330.405
460;585.90;059.95;328.725
461;534.02;063.39;333.323
462;577.21;059.52;325.167
463;540.10;063.45;329.284
464;577.98;062.73;338.871
465;533.65;062.90;335.304
466;578.22;063.00;338.427
467;538.85;064.19;343.093
468;578.20;062.73;346.938
469;542.21;064.76;344.270
470;588.84;062.46;339.763
471;533.35;063.75;339.956
472;575.94;060.05;334.026
473;534.86;063.60;343.616
474;584.23;061.23;337.845
475;536.33;063.39;332.190
476;571.91;061.04;335.657
477;532.93;061.98;342.470
478;579.15;061.02;343.937
479;549.38;062.25;346.685
480;570.25;062.77;357.502
481;532.09;063.34;355.198
482;583.14;062.13;355.549
483;537.44;062.59;339.250
484;589.08;061.82;343.082
485;530.23;061.59;334.101
486;579.82;060.95;343.566
487;533.85;062.90;341.450
488;580.09;062.04;339.623
489;534.81;062.26;351.175
490;569.22;062.61;351.810
491;528.09;063.57;346.879
492;581.72;060.22;341.437
493;528.44;062.63;340.488
494;581.14;057.57;331.673
495;538.82;060.87;335.810
496;573.41;061.19;338.013
497;531.69;063.56;351.195
498;579.76;061.61;350.519
499;530.79;063.37;349.853
500;582.45;060.45;353.343
501;536.84;061.27;346.408
502;584.39;058.94;347.669
503;530.36;062.13;352.209
504;574.24;061.26;341.051
505;539.86;062.33;345.794
506;586.00;062.34;352.894
507;531.83;062.32;354.153
508;573.99;062.14;345.323
509;530.79;062.26;343.105
510;581.70;060.92;344.143
511;527.19;061.01;326.287
